File: data/Sirion/7kV-S5-5mm-100sec-coated-end-1.msa
#FORMAT      : EMSA/MAS Spectral Data File
#VERSION     : 1.0
#TITLE       : 7kV-S5-5mm-100sec-coated-end-1
#DATE        : 01-JUN-2017
#TIME        : 14:24
#OWNER       : John Minter
#NPOINTS     : 2048.0
#NCOLUMNS    : 1.0
#XUNITS      : keV
#YUNITS      : counts
#DATATYPE    : XY
#XPERCHAN    : 0.005
#OFFSET      : -0.1
#SIGNALTYPE  : EDS
#CHOFFSET    : 20.0
#LIVETIME    : 100.0
#REALTIME    : 110.345
#BEAMKV      : 7.0
#PROBECUR    : 2.288
#MAGCAM      : 100000.0
#XTILTSTGE   : 0.0
#AZIMANGLE   : 0.0
#ELEVANGLE   : 35.0
#XPOSITION mm: -4.5840
#YPOSITION mm: 2.5710
#ZPOSITION mm: 5.0040
##OXINSTPT   : 4
##OXINSTSTROB: 47.98
##OXINSTELEMS: 6,14
##OXINSTLABEL: 6, 0.277, C
##OXINSTLABEL: 14, 1.740, Si
#SPECTRUM    : Spectral Data Starts Here
-0.10000, 0.0
-0.06500, 2.0
-0.03000, 223.0
0.00500, 1520.0
0.04000, 2389.0
0.07500, 1775.0
0.11000, 1960.0
0.14500, 333.0
0.18000, 150.0
0.21500, 246.0
0.25000, 820.0
0.28500, 1146.0
0.32000, 346.0
0.35500, 239.0
0.39000, 331.0
0.42500, 409.0
0.46000, 527.0
0.49500, 700.0
0.53000, 800.0
0.56500, 603.0
0.60000, 621.0
0.63500, 674.0
0.67000, 755.0
0.70500, 756.0
0.74000, 801.0
0.77500, 800.0
0.81000, 805.0
0.84500, 802.0
0.88000, 788.0
0.91500, 834.0
0.95000, 794.0
0.98500, 733.0
1.02000, 752.0
1.05500, 734.0
1.09000, 792.0
1.12500, 704.0
1.16000, 676.0
1.19500, 660.0
1.23000, 684.0
1.26500, 658.0
1.30000, 626.0
1.33500, 652.0
1.37000, 614.0
1.40500, 656.0
1.44000, 657.0
1.47500, 670.0
1.51000, 732.0
1.54500, 689.0
1.58000, 713.0
1.61500, 725.0
1.65000, 1954.0
1.68500, 12876.0
1.72000, 41498.0
1.75500, 47794.0
1.79000, 21101.0
1.82500, 5416.0
1.86000, 2279.0
1.89500, 941.0
1.93000, 387.0
1.96500, 296.0
2.00000, 282.0
2.03500, 274.0
2.07000, 272.0
2.10500, 262.0
2.14000, 272.0
2.17500, 260.0
2.21000, 228.0
2.24500, 262.0
2.28000, 249.0
2.31500, 227.0
2.35000, 237.0
2.38500, 239.0
2.42000, 238.0
2.45500, 241.0
2.49000, 219.0
2.52500, 232.0
2.56000, 219.0
2.59500, 232.0
2.63000, 192.0
2.66500, 226.0
2.70000, 204.0
2.73500, 210.0
2.77000, 207.0
2.80500, 182.0
2.84000, 182.0
2.87500, 205.0
2.91000, 181.0
2.94500, 185.0
2.98000, 192.0
3.01500, 164.0
3.05000, 157.0
3.08500, 177.0
3.12000, 162.0
3.15500, 167.0
3.19000, 157.0
3.22500, 145.0
3.26000, 161.0
3.29500, 123.0
3.33000, 178.0
3.36500, 157.0
3.40000, 158.0
3.43500, 209.0
3.47000, 272.0
3.50500, 267.0
3.54000, 206.0
3.57500, 171.0
3.61000, 156.0
3.64500, 119.0
3.68000, 118.0
3.71500, 126.0
3.75000, 116.0
3.78500, 107.0
3.82000, 115.0
3.85500, 100.0
3.89000, 115.0
3.92500, 120.0
3.96000, 96.0
3.99500, 101.0
4.03000, 103.0
4.06500, 104.0
4.10000, 80.0
4.13500, 97.0
4.17000, 94.0
4.20500, 87.0
4.24000, 88.0
4.27500, 86.0
4.31000, 93.0
4.34500, 84.0
4.38000, 90.0
4.41500, 72.0
4.45000, 76.0
4.48500, 72.0
4.52000, 83.0
4.55500, 63.0
4.59000, 60.0
4.62500, 69.0
4.66000, 61.0
4.69500, 65.0
4.73000, 58.0
4.76500, 58.0
4.80000, 66.0
4.83500, 66.0
4.87000, 64.0
4.90500, 46.0
4.94000, 43.0
4.97500, 55.0
5.01000, 47.0
5.04500, 58.0
5.08000, 50.0
5.11500, 51.0
5.15000, 44.0
5.18500, 53.0
5.22000, 50.0
5.25500, 58.0
5.29000, 35.0
5.32500, 49.0
5.36000, 34.0
5.39500, 40.0
5.43000, 36.0
5.46500, 46.0
5.50000, 37.0
5.53500, 34.0
5.57000, 24.0
5.60500, 33.0
5.64000, 33.0
5.67500, 38.0
5.71000, 31.0
5.74500, 37.0
5.78000, 20.0
5.81500, 26.0
5.85000, 20.0
5.88500, 17.0
5.92000, 20.0
5.95500, 22.0
5.99000, 24.0
6.02500, 20.0
6.06000, 17.0
6.09500, 18.0
6.13000, 21.0
6.16500, 24.0
6.20000, 21.0
6.23500, 14.0
6.27000, 21.0
6.30500, 9.0
6.34000, 13.0
6.37500, 12.0
6.41000, 10.0
6.44500, 11.0
6.48000, 10.0
6.51500, 16.0
6.55000, 9.0
6.58500, 10.0
6.62000, 7.0
6.65500, 10.0
6.69000, 6.0
6.72500, 11.0
6.76000, 9.0
6.79500, 7.0
6.83000, 5.0
6.86500, 3.0
6.90000, 5.0
6.93500, 4.0
6.97000, 5.0
7.00500, 1.0
7.04000, 2.0
7.07500, 0.0
7.11000, 2.0
7.14500, 0.0
7.18000, 0.0
7.21500, 0.0
7.25000, 0.0
7.28500, 2.0
7.32000, 0.0
7.35500, 1.0
7.39000, 0.0
7.42500, 0.0
7.46000, 1.0
7.49500, 1.0
7.53000, 0.0
7.56500, 0.0
7.60000, 0.0
7.63500, 1.0
7.67000, 0.0
7.70500, 1.0
7.74000, 0.0
7.77500, 0.0
7.81000, 0.0
7.84500, 0.0
7.88000, 0.0
7.91500, 0.0
7.95000, 0.0
7.98500, 0.0
8.02000, 0.0
8.05500, 0.0
8.09000, 0.0
8.12500, 1.0
8.16000, 0.0
8.19500, 0.0
8.23000, 1.0
8.26500, 0.0
8.30000, 0.0
8.33500, 0.0
8.37000, 0.0
8.40500, 0.0
8.44000, 0.0
8.47500, 0.0
8.51000, 0.0
8.54500, 0.0
8.58000, 0.0
8.61500, 0.0
8.65000, 0.0
8.68500, 0.0
8.72000, 0.0
8.75500, 0.0
8.79000, 0.0
8.82500, 0.0
8.86000, 0.0
8.89500, 0.0
8.93000, 0.0
8.96500, 0.0
9.00000, 0.0
9.03500, 0.0
9.07000, 0.0
9.10500, 1.0
9.14000, 0.0
9.17500, 0.0
9.21000, 0.0
9.24500, 0.0
9.28000, 0.0
9.31500, 0.0
9.35000, 0.0
9.38500, 0.0
9.42000, 0.0
9.45500, 0.0
9.49000, 0.0
9.52500, 0.0
9.56000, 0.0
9.59500, 0.0
9.63000, 0.0
9.66500, 0.0
9.70000, 0.0
9.73500, 0.0
9.77000, 0.0
9.80500, 0.0
9.84000, 0.0
9.87500, 0.0
9.91000, 0.0
9.94500, 0.0
9.98000, 0.0
10.01500, 0.0
10.05000, 0.0
10.08500, 0.0
10.12000, 1.0
10.13500, 0.0
#ENDOFDATA   :