File: data/Sirion/C-std-7kV.msa
#FORMAT      : EMSA/MAS Spectral Data File
#VERSION     : 1.0
#TITLE       : C-7kV-std
#DATE        : 01-Jun-2017
#TIME        : 07:00
#OWNER       : John Minter
#NPOINTS     : 2048
#NCOLUMNS    : 1
#XUNITS      : eV
#YUNITS      : counts
#DATATYPE    : Y
#XPERCHAN    : 5.00333
#OFFSET      : -103.613
#BEAMKV      : 7
#PROBECUR    : 2.288
#SIGNALTYPE  : EDS
#ELEVANGLE   : 35
#AZIMANGLE   : 225
#LIVETIME    : 300
#REALTIME    : 338.08
#TAUWIND     : 0
#TDEADLYR    : 0
#TACTLYR     : 0.045
#TALWIND     : 0.003
#CHOFFSET    : 0.0
#XLABEL      : Energy (eV)
#YLABEL      : Counts
#EDSDET      : SDUTW
##SPECIMEN   : C-7kV-std
##D2STDCMP   : C,(C:100.0),2.1
##DET_HASH   : beb453cd-0419-e61a-0579-19c0f29e56e8
##CALIB_HASH : 437bace4-1a7e-9a72-d2b5-cbfa7f4a1c79
##SAMPLE     : <BulkSample id="1">\n<mOrientation id="2">\n<double>0.0</double>\n<double>0.0</double>\n<double>-1.0</double>\n</mOrientation>\n</BulkSample>
#SPECTRUM    :
0,
4,
696,
4755,
7092,
3407,
2152,
2259,
3367,
16916,
141450,
231220,
49273,
1592,
437,
463.918,
517.154,
570.389,
623.625,
676.86,
730.096,
783.331,
825,
907,
941,
1006,
1002,
988,
975,
1029,
999.454,
987.5727,
975.691,
963.81,
987,
942,
916,
893,
870,
831,
818,
779,
771,
711,
724,
687,
694,
654,
607,
559,
577,
582,
592,
538,
546,
536,
473,
446,
423,
435,
423,
394,
386,
379,
389,
386,
357,
358,
379,
366,
362,
296,
295,
302,
306,
295,
284,
281,
269,
271,
278,
236,
219,
223,
225,
210,
208,
206,
201,
198,
211,
188,
192,
201,
173,
183,
177,
171,
171,
157,
164,
161,
149,
151,
135,
145,
160,
131,
153,
125,
120,
128,
107,
115,
104,
123,
105,
108,
106,
92,
98,
91,
105,
87,
81,
85,
92,
78,
78,
82,
68,
63,
61,
73,
63,
77,
64,
54,
60,
54,
62,
61,
66,
51,
46,
45,
50,
42,
47,
47,
41,
40,
47,
44,
42,
33,
43,
28,
31,
40,
32,
36,
32,
32,
36,
27,
24,
26,
27,
28,
28,
16,
28,
23,
24,
21,
19,
17,
18,
14,
16,
19,
11,
15,
11,
10,
9,
8,
15,
9,
9,
5,
9,
6,
6,
9,
3,
6,
2,
1,
0,
2,
2,
4,
2,
0,
1,
0,
0,
0,
0,
0,
0,
0,
0,
0,
0,
0,
0,
0,
0,
0,
0,
0,
0,
0,
0,
0,
0,
0,
0,
1,
0,
0,
0,
0,
0,
0,
0,
0,
0,
0,
0,
0,
0,
0,
0,
0,
0,
0,
0,
0,
0,
0,
0,
0,
0,
0,
0,
0,
0,
0,
0,
0,
0,
0,
0,
0,
0,
0,
0,
0,
0,
0,
0,
0,
0,
0,
0,
0,
0,
0,
0,
0,
0,
0,
0,
0,
0,
0,
0,
0,
0,
0,
#ENDOFDATA   :