File: data/Sirion/Cu-2017-12-14-5eV-ch-4K.msa
#FORMAT      : EMSA/MAS Spectral Data File
#VERSION     : 1.0
#TITLE       : Cu-2017-12-14-5eV-ch-4K
#DATE        : 14-DEC-2017
#TIME        : 14:15
#OWNER       : John Minter
#NPOINTS     : 4096.0
#NCOLUMNS    : 1.0
#XUNITS      : keV
#YUNITS      : counts
#DATATYPE    : XY
#XPERCHAN    : 0.005
#OFFSET      : -0.2
#SIGNALTYPE  : EDS
#CHOFFSET    : 40.0
#LIVETIME    : 100.0
#REALTIME    : 128.68
#BEAMKV      : 20.0
#PROBECUR    : 1.83
#MAGCAM      : 8000.0
#XTILTSTGE   : 0.0
#AZIMANGLE   : 0.0
#ELEVANGLE   : 35.0
#XPOSITION mm: 0.9090
#YPOSITION mm: 0.0860
#ZPOSITION mm: 4.9970
##OXINSTPT   : 4
##OXINSTSTROB: 48.41
##OXINSTELEMS: 29,6,8,35
##OXINSTLABEL: 29, 8.048, Cu
##OXINSTLABEL: 29, 8.905, Cu
##OXINSTLABEL: 29, 0.930, Cu
##OXINSTLABEL: 29, 0.832, Cu
##OXINSTLABEL: 29, 0.811, Cu
##OXINSTLABEL: 6, 0.277, C
##OXINSTLABEL: 8, 0.525, O
##OXINSTLABEL: 35, 11.924, Br
##OXINSTLABEL: 35, 13.292, Br
##OXINSTLABEL: 35, 1.480, Br
##OXINSTLABEL: 35, 1.340, Br
##OXINSTLABEL: 35, 1.294, Br
#SPECTRUM    : Spectral Data Starts Here
-0.20000, 0.0
-0.13000, 0.0
-0.06000, 4.0
0.01000, 1917.0
0.08000, 663.0
0.15000, 252.0
0.22000, 321.0
0.29000, 781.0
0.36000, 323.0
0.43000, 444.0
0.50000, 907.0
0.57000, 825.0
0.64000, 1058.0
0.71000, 1498.0
0.78000, 5356.0
0.85000, 7791.0
0.92000, 74431.0
0.99000, 12758.0
1.06000, 557.0
1.13000, 393.0
1.20000, 397.0
1.27000, 490.0
1.34000, 514.0
1.41000, 564.0
1.48000, 946.0
1.55000, 708.0
1.62000, 630.0
1.69000, 717.0
1.76000, 762.0
1.83000, 868.0
1.90000, 843.0
1.97000, 745.0
2.04000, 763.0
2.11000, 784.0
2.18000, 823.0
2.25000, 846.0
2.32000, 859.0
2.39000, 831.0
2.46000, 841.0
2.53000, 880.0
2.60000, 878.0
2.67000, 864.0
2.74000, 838.0
2.81000, 882.0
2.88000, 830.0
2.95000, 867.0
3.02000, 895.0
3.09000, 852.0
3.16000, 826.0
3.23000, 834.0
3.30000, 828.0
3.37000, 826.0
3.44000, 775.0
3.51000, 818.0
3.58000, 781.0
3.65000, 783.0
3.72000, 760.0
3.79000, 790.0
3.86000, 746.0
3.93000, 758.0
4.00000, 731.0
4.07000, 706.0
4.14000, 717.0
4.21000, 663.0
4.28000, 670.0
4.35000, 654.0
4.42000, 661.0
4.49000, 665.0
4.56000, 640.0
4.63000, 607.0
4.70000, 636.0
4.77000, 623.0
4.84000, 578.0
4.91000, 582.0
4.98000, 569.0
5.05000, 566.0
5.12000, 543.0
5.19000, 548.0
5.26000, 534.0
5.33000, 563.0
5.40000, 546.0
5.47000, 505.0
5.54000, 538.0
5.61000, 510.0
5.68000, 495.0
5.75000, 501.0
5.82000, 495.0
5.89000, 440.0
5.96000, 483.0
6.03000, 475.0
6.10000, 451.0
6.17000, 438.0
6.24000, 482.0
6.31000, 476.0
6.38000, 438.0
6.45000, 424.0
6.52000, 414.0
6.59000, 418.0
6.66000, 407.0
6.73000, 396.0
6.80000, 398.0
6.87000, 366.0
6.94000, 398.0
7.01000, 370.0
7.08000, 387.0
7.15000, 379.0
7.22000, 396.0
7.29000, 360.0
7.36000, 380.0
7.43000, 344.0
7.50000, 338.0
7.57000, 351.0
7.64000, 369.0
7.71000, 378.0
7.78000, 371.0
7.85000, 633.0
7.92000, 3740.0
7.99000, 14960.0
8.06000, 19181.0
8.13000, 7429.0
8.20000, 1051.0
8.27000, 350.0
8.34000, 275.0
8.41000, 310.0
8.48000, 278.0
8.55000, 307.0
8.62000, 300.0
8.69000, 337.0
8.76000, 591.0
8.83000, 1859.0
8.90000, 2956.0
8.97000, 1922.0
9.04000, 664.0
9.11000, 259.0
9.18000, 197.0
9.25000, 202.0
9.32000, 192.0
9.39000, 209.0
9.46000, 206.0
9.53000, 179.0
9.60000, 191.0
9.67000, 182.0
9.74000, 199.0
9.81000, 199.0
9.88000, 216.0
9.95000, 221.0
10.02000, 181.0
10.09000, 196.0
10.16000, 187.0
10.23000, 177.0
10.30000, 169.0
10.37000, 190.0
10.44000, 199.0
10.51000, 181.0
10.58000, 167.0
10.65000, 167.0
10.72000, 174.0
10.79000, 176.0
10.86000, 182.0
10.93000, 162.0
11.00000, 155.0
11.07000, 150.0
11.14000, 156.0
11.21000, 144.0
11.28000, 149.0
11.35000, 170.0
11.42000, 136.0
11.49000, 136.0
11.56000, 147.0
11.63000, 140.0
11.70000, 119.0
11.77000, 133.0
11.84000, 132.0
11.91000, 121.0
11.98000, 128.0
12.05000, 141.0
12.12000, 135.0
12.19000, 112.0
12.26000, 120.0
12.33000, 102.0
12.40000, 104.0
12.47000, 125.0
12.54000, 106.0
12.61000, 102.0
12.68000, 105.0
12.75000, 91.0
12.82000, 99.0
12.89000, 90.0
12.96000, 108.0
13.03000, 96.0
13.10000, 100.0
13.17000, 101.0
13.24000, 84.0
13.31000, 99.0
13.38000, 83.0
13.45000, 90.0
13.52000, 85.0
13.59000, 80.0
13.66000, 89.0
13.73000, 84.0
13.80000, 77.0
13.87000, 77.0
13.94000, 77.0
14.01000, 73.0
14.08000, 72.0
14.15000, 75.0
14.22000, 73.0
14.29000, 61.0
14.36000, 71.0
14.43000, 61.0
14.50000, 73.0
14.57000, 57.0
14.64000, 66.0
14.71000, 58.0
14.78000, 64.0
14.85000, 51.0
14.92000, 60.0
14.99000, 57.0
15.06000, 53.0
15.13000, 44.0
15.20000, 45.0
15.27000, 42.0
15.34000, 43.0
15.41000, 45.0
15.48000, 36.0
15.55000, 43.0
15.62000, 49.0
15.69000, 32.0
15.76000, 36.0
15.83000, 31.0
15.90000, 43.0
15.97000, 54.0
16.04000, 63.0
16.11000, 69.0
16.18000, 62.0
16.25000, 58.0
16.32000, 38.0
16.39000, 34.0
16.46000, 30.0
16.53000, 27.0
16.60000, 35.0
16.67000, 29.0
16.74000, 29.0
16.81000, 36.0
16.88000, 49.0
16.95000, 33.0
17.02000, 24.0
17.09000, 24.0
17.16000, 30.0
17.23000, 25.0
17.30000, 21.0
17.37000, 23.0
17.44000, 21.0
17.51000, 19.0
17.58000, 23.0
17.65000, 20.0
17.72000, 15.0
17.79000, 12.0
17.86000, 17.0
17.93000, 13.0
18.00000, 16.0
18.07000, 8.0
18.14000, 16.0
18.21000, 12.0
18.28000, 8.0
18.35000, 10.0
18.42000, 9.0
18.49000, 15.0
18.56000, 9.0
18.63000, 12.0
18.70000, 6.0
18.77000, 7.0
18.84000, 8.0
18.91000, 7.0
18.98000, 7.0
19.05000, 4.0
19.12000, 5.0
19.19000, 6.0
19.26000, 6.0
19.33000, 7.0
19.40000, 4.0
19.47000, 6.0
19.54000, 4.0
19.61000, 4.0
19.68000, 4.0
19.75000, 5.0
19.82000, 1.0
19.89000, 2.0
19.96000, 2.0
20.03000, 1.0
20.10000, 0.0
20.17000, 1.0
20.24000, 1.0
20.27500, 2.0
#ENDOFDATA   :