File: data/Sirion/Cu-2017-12-14-5eV-ch-2K.msa
#FORMAT      : EMSA/MAS Spectral Data File
#VERSION     : 1.0
#TITLE       : Cu-2017-12-14-5eV-ch-2K
#DATE        : 14-DEC-2017
#TIME        : 14:12
#OWNER       : John Minter
#NPOINTS     : 2048.0
#NCOLUMNS    : 1.0
#XUNITS      : keV
#YUNITS      : counts
#DATATYPE    : XY
#XPERCHAN    : 0.005
#OFFSET      : -0.1
#SIGNALTYPE  : EDS
#CHOFFSET    : 20.0
#LIVETIME    : 100.0
#REALTIME    : 128.559
#BEAMKV      : 20.0
#PROBECUR    : 1.83
#MAGCAM      : 8000.0
#XTILTSTGE   : 0.0
#AZIMANGLE   : 0.0
#ELEVANGLE   : 35.0
#XPOSITION mm: 0.9090
#YPOSITION mm: 0.0860
#ZPOSITION mm: 4.9970
##OXINSTPT   : 4
##OXINSTSTROB: 48.28
##OXINSTELEMS: 29,6,8,13
##OXINSTLABEL: 29, 8.048, Cu
##OXINSTLABEL: 29, 8.905, Cu
##OXINSTLABEL: 29, 0.930, Cu
##OXINSTLABEL: 29, 0.832, Cu
##OXINSTLABEL: 29, 0.811, Cu
##OXINSTLABEL: 6, 0.277, C
##OXINSTLABEL: 8, 0.525, O
##OXINSTLABEL: 13, 1.487, Al
#SPECTRUM    : Spectral Data Starts Here
-0.10000, 0.0
-0.06500, 4.0
-0.03000, 241.0
0.00500, 1672.0
0.04000, 2847.0
0.07500, 861.0
0.11000, 264.0
0.14500, 218.0
0.18000, 226.0
0.21500, 279.0
0.25000, 621.0
0.28500, 814.0
0.32000, 337.0
0.35500, 285.0
0.39000, 347.0
0.42500, 446.0
0.46000, 587.0
0.49500, 872.0
0.53000, 1072.0
0.56500, 809.0
0.60000, 844.0
0.63500, 998.0
0.67000, 1213.0
0.70500, 1400.0
0.74000, 1927.0
0.77500, 4650.0
0.81000, 9142.0
0.84500, 7903.0
0.88000, 19510.0
0.91500, 67964.0
0.95000, 67072.0
0.98500, 17411.0
1.02000, 1985.0
1.05500, 577.0
1.09000, 422.0
1.12500, 404.0
1.16000, 384.0
1.19500, 391.0
1.23000, 462.0
1.26500, 483.0
1.30000, 493.0
1.33500, 519.0
1.37000, 534.0
1.40500, 577.0
1.44000, 649.0
1.47500, 950.0
1.51000, 943.0
1.54500, 760.0
1.58000, 639.0
1.61500, 656.0
1.65000, 632.0
1.68500, 666.0
1.72000, 702.0
1.75500, 752.0
1.79000, 802.0
1.82500, 847.0
1.86000, 996.0
1.89500, 908.0
1.93000, 784.0
1.96500, 753.0
2.00000, 800.0
2.03500, 736.0
2.07000, 745.0
2.10500, 778.0
2.14000, 753.0
2.17500, 763.0
2.21000, 835.0
2.24500, 856.0
2.28000, 881.0
2.31500, 843.0
2.35000, 842.0
2.38500, 859.0
2.42000, 877.0
2.45500, 851.0
2.49000, 844.0
2.52500, 888.0
2.56000, 830.0
2.59500, 857.0
2.63000, 886.0
2.66500, 895.0
2.70000, 869.0
2.73500, 876.0
2.77000, 887.0
2.80500, 856.0
2.84000, 861.0
2.87500, 864.0
2.91000, 859.0
2.94500, 880.0
2.98000, 875.0
3.01500, 853.0
3.05000, 870.0
3.08500, 851.0
3.12000, 846.0
3.15500, 847.0
3.19000, 849.0
3.22500, 848.0
3.26000, 845.0
3.29500, 832.0
3.33000, 801.0
3.36500, 801.0
3.40000, 839.0
3.43500, 823.0
3.47000, 820.0
3.50500, 779.0
3.54000, 792.0
3.57500, 797.0
3.61000, 779.0
3.64500, 809.0
3.68000, 774.0
3.71500, 802.0
3.75000, 762.0
3.78500, 774.0
3.82000, 747.0
3.85500, 700.0
3.89000, 729.0
3.92500, 767.0
3.96000, 744.0
3.99500, 725.0
4.03000, 714.0
4.06500, 674.0
4.10000, 650.0
4.13500, 707.0
4.17000, 711.0
4.20500, 708.0
4.24000, 675.0
4.27500, 679.0
4.31000, 652.0
4.34500, 660.0
4.38000, 648.0
4.41500, 647.0
4.45000, 675.0
4.48500, 677.0
4.52000, 633.0
4.55500, 649.0
4.59000, 610.0
4.62500, 618.0
4.66000, 611.0
4.69500, 626.0
4.73000, 612.0
4.76500, 591.0
4.80000, 634.0
4.83500, 586.0
4.87000, 596.0
4.90500, 612.0
4.94000, 597.0
4.97500, 592.0
5.01000, 563.0
5.04500, 594.0
5.08000, 587.0
5.11500, 551.0
5.15000, 570.0
5.18500, 558.0
5.22000, 567.0
5.25500, 534.0
5.29000, 525.0
5.32500, 542.0
5.36000, 546.0
5.39500, 537.0
5.43000, 571.0
5.46500, 539.0
5.50000, 518.0
5.53500, 517.0
5.57000, 529.0
5.60500, 552.0
5.64000, 499.0
5.67500, 476.0
5.71000, 472.0
5.74500, 463.0
5.78000, 475.0
5.81500, 493.0
5.85000, 477.0
5.88500, 468.0
5.92000, 481.0
5.95500, 477.0
5.99000, 481.0
6.02500, 449.0
6.06000, 454.0
6.09500, 483.0
6.13000, 485.0
6.16500, 450.0
6.20000, 444.0
6.23500, 473.0
6.27000, 476.0
6.30500, 485.0
6.34000, 445.0
6.37500, 430.0
6.41000, 405.0
6.44500, 418.0
6.48000, 411.0
6.51500, 433.0
6.55000, 393.0
6.58500, 411.0
6.62000, 378.0
6.65500, 431.0
6.69000, 434.0
6.72500, 397.0
6.76000, 366.0
6.79500, 377.0
6.83000, 386.0
6.86500, 400.0
6.90000, 384.0
6.93500, 350.0
6.97000, 383.0
7.00500, 370.0
7.04000, 346.0
7.07500, 347.0
7.11000, 346.0
7.14500, 375.0
7.18000, 375.0
7.21500, 335.0
7.25000, 356.0
7.28500, 376.0
7.32000, 371.0
7.35500, 347.0
7.39000, 373.0
7.42500, 343.0
7.46000, 355.0
7.49500, 330.0
7.53000, 321.0
7.56500, 341.0
7.60000, 350.0
7.63500, 331.0
7.67000, 321.0
7.70500, 338.0
7.74000, 375.0
7.77500, 380.0
7.81000, 424.0
7.84500, 585.0
7.88000, 1243.0
7.91500, 3286.0
7.95000, 7652.0
7.98500, 14400.0
8.02000, 19559.0
8.05500, 19706.0
8.09000, 14886.0
8.12500, 8260.0
8.16000, 3465.0
8.19500, 1258.0
8.23000, 528.0
8.26500, 373.0
8.30000, 309.0
8.33500, 353.0
8.37000, 296.0
8.40500, 311.0
8.44000, 277.0
8.47500, 310.0
8.51000, 288.0
8.54500, 300.0
8.58000, 281.0
8.61500, 321.0
8.65000, 329.0
8.68500, 353.0
8.72000, 385.0
8.75500, 595.0
8.79000, 985.0
8.82500, 1687.0
8.86000, 2480.0
8.89500, 2977.0
8.93000, 2763.0
8.96500, 2047.0
9.00000, 1248.0
9.03500, 669.0
9.07000, 426.0
9.10500, 257.0
9.14000, 219.0
9.17500, 214.0
9.21000, 206.0
9.24500, 188.0
9.28000, 197.0
9.31500, 214.0
9.35000, 207.0
9.38500, 196.0
9.42000, 205.0
9.45500, 207.0
9.49000, 208.0
9.52500, 205.0
9.56000, 208.0
9.59500, 209.0
9.63000, 198.0
9.66500, 189.0
9.70000, 217.0
9.73500, 202.0
9.77000, 207.0
9.80500, 218.0
9.84000, 223.0
9.87500, 206.0
9.91000, 190.0
9.94500, 203.0
9.98000, 192.0
10.01500, 184.0
10.05000, 180.0
10.08500, 193.0
10.12000, 200.0
10.13500, 180.0
#ENDOFDATA   :