File: data/Sirion/Si-std-7kV.msa
#FORMAT      : EMSA/MAS Spectral Data File
#VERSION     : 1.0
#TITLE       : Si-7kV-std
#DATE        : 01-Jun-2017
#TIME        : 07:00
#OWNER       : John Minter
#NPOINTS     : 2048
#NCOLUMNS    : 1
#XUNITS      : eV
#YUNITS      : counts
#DATATYPE    : Y
#XPERCHAN    : 5.00333
#OFFSET      : -103.613
#BEAMKV      : 7
#PROBECUR    : 2.288
#SIGNALTYPE  : EDS
#ELEVANGLE   : 35
#AZIMANGLE   : 225
#LIVETIME    : 600
#REALTIME    : 661.87
#TAUWIND     : 0
#TDEADLYR    : 0
#TACTLYR     : 0.045
#TALWIND     : 0.003
#CHOFFSET    : 0.0
#XLABEL      : Energy (eV)
#YLABEL      : Counts
#EDSDET      : SDUTW
##SPECIMEN   : Si-7kV-std
##D2STDCMP   : Si,(Si:100.0),2.1
##DET_HASH   : beb453cd-0419-e61a-0579-19c0f29e56e8
##CALIB_HASH : 437bace4-1a7e-9a72-d2b5-cbfa7f4a1c79
##SAMPLE     : <BulkSample id="1">\n<mOrientation id="2">\n<double>0.0</double>\n<double>0.0</double>\n<double>-1.0</double>\n</mOrientation>\n</BulkSample>
#SPECTRUM    :
0,
9,
1293,
9084,
14208,
11450,
12827,
2141,
811,
855.304,
932.112,
1008.92,
1188,
1555,
2064,
2619,
2929,
3149.07,
3369.14,
3589.2,
3749,
4163,
4367,
4578,
4748,
4809,
5018,
4935,
4861,
4895,
4760,
4704,
4520,
4422,
4286,
4231,
4272,
4098,
4040,
3954,
3925,
3902,
3796,
3785,
3917,
4001,
4170,
4283,
4305,
4383,
11656,
78121,
250696,
292235,
127849,
32821,
13988,
5744,
2384,
1749,
1641,
1553,
1545,
1544,
1573,
1506,
1494,
1486,
1508,
1485,
1442,
1382,
1388,
1381,
1349,
1325,
1313,
1307,
1236,
1271,
1255,
1214,
1211,
1125,
1150,
1109,
1128,
1150,
1041,
1030,
1046,
1011,
967,
980,
932,
957,
891,
903,
899,
889.904,
872.018,
854.131,
836.245,
818.358,
800.472,
782.586,
764.699,
746.813,
728.926,
720,
703,
691,
665,
642,
625,
646,
621,
591,
584,
610,
587,
589,
550,
517,
569,
552,
480,
511,
491,
457,
451,
450,
455,
415,
415,
423,
412,
386,
398,
391,
391,
384,
363,
344,
342,
334,
306,
315,
325,
270,
302,
299,
263,
295,
284,
263,
252,
233,
256,
230,
226,
223,
211,
211,
188,
170,
193,
185,
180,
161,
178,
165,
157,
129,
147,
157,
132,
139,
124,
120,
111,
125,
111,
104,
91,
89,
74,
79,
82,
78,
69,
58,
69,
52,
44,
42,
47,
36,
41,
47,
25,
31,
18,
9,
6,
8,
3,
4,
3,
1,
2,
2,
2,
4,
2,
2,
3,
3,
4,
1,
3,
1,
1,
2,
0,
1,
1,
2,
3,
1,
2,
0,
1,
0,
1,
2,
0,
1,
0,
2,
1,
1,
0,
0,
1,
0,
1,
0,
0,
1,
1,
0,
0,
0,
1,
0,
0,
1,
0,
0,
0,
0,
0,
0,
0,
0,
1,
0,
0,
1,
0,
0,
0,
0,
0,
0,
0,
0,
0,
1,
0,
0,
0,
0,
0,
0,
1,
0,
0,
0,
0,
0,
0,
0,
#ENDOFDATA   :